# Profile Compression settings. Method: Sum Points, using 1 datapoints
# Profile Smoothing is Disabled
#	total	HfO_2-	TiO_2-	AlO_2-	SiO_2-	
#	N/A	212.0111	79.9684	59.0045	59.9875	
#Sputter Time (s)	Intensity	Intensity(Background Corrected)	Intensity(Background Corrected)	Intensity(Background Corrected)	Intensity(Background Corrected)	
0	270115	34.0349	35.0374	1418.49	1493.98	
1	383296	40.0546	544.208	935.15	3292.11	
2	464098	86.2201	641.888	776.082	5384.56	
3	532548	118.45	887.206	756.127	7956.39	
4	581677	190.099	1298.88	717.375	10433	
5	607340	225.526	1716.09	670.415	12341.6	
6	626047	266.116	2350.44	643.372	13900.9	
7	638482	353.748	3120.15	712.034	15348.8	
8	649085	418.26	3939.93	604.828	16432.2	
9	635938	472.678	4563.01	590.356	16703.8	
10	641236	573.875	5493.05	595.563	17435.1	
11	627494	626.781	6082.35	510.755	17190.3	
12	635374	717.395	7370.05	562.407	18372.6	
13	621434	768.656	8030.76	490.109	18405.2	
14	612235	844.297	8722.09	467.514	18495	
15	599007	945.728	9260.65	441.818	18127.6	
16	592293	998.741	10171	411.036	18171.1	
17	591548	1057.22	11049.4	420.323	18412.1	
18	586517	1143.93	11861.6	418.238	18219.8	
19	583702	1225.69	12540.9	419.256	18029.9	
20	578977	1225.69	13138.4	392.596	18521	
21	578947	1414.3	13524.5	430.547	17835.1	
22	571746	1379.37	14015.6	390.566	17942.2	
23	570361	1471.11	14743.9	368.016	17376.7	
24	558218	1490.57	14926.4	350.701	16981.4	
25	558383	1559.88	15480.4	415.141	17217.3	
26	556519	1643.64	15824.2	364.97	16761.8	
27	557196	1803.66	16285.9	386.495	16711	
28	554259	1842.53	16633.8	386.498	16167.6	
29	550775	1870.67	16511	392.61	16189.4	
30	541825	1907.61	17208.1	349.682	15819.6	
31	543726	2033.06	17447.9	359.899	15977.6	
32	541846	2161.42	17651	379.313	15467.9	
33	534377	2087.45	17808.8	364.968	14926.9	
34	522294	2087.51	17233.7	340.48	14427.1	
35	524229	2150.08	17620.6	314.995	14009.7	
36	531160	2310.36	17867.3	319.082	13957.5	
37	522761	2309.2	18838	310.904	13862.9	
38	527361	2466.66	18643.8	362.96	13765.2	
39	517510	2469.99	18263.9	340.492	13200.9	
40	514638	2525.99	18593.3	341.512	13229.4	
41	516914	2676.03	19029.6	320.085	12761.9	
42	511722	2697.19	18606	322.129	12733.1	
43	503691	2645.43	18820.3	327.236	12359.3	
44	491574	2657.08	18627.4	343.567	11910	
45	500852	2946.7	18712.7	317.005	11841.8	
46	477693	2845.08	18018	308.88	10994.1	
47	487372	2929.8	18787.2	308.891	11248.1	
48	488818	3033.11	18713.7	269.178	11012.6	
49	477641	3023.36	18048.6	302.764	10546.9	
50	472258	3031.73	17966.5	283.427	10134	
51	480160	3113.8	18343	299.709	10015.7	
52	487227	3521.78	19000.9	296.654	10444.4	
53	492317	3651.18	19338.1	298.692	10265.8	
54	486190	3593.76	18878.4	288.517	10014.5	
55	483992	3639.79	18859.4	282.404	9808.13	
56	482316	3763.92	18692.3	283.423	9435.85	
57	488505	3859.94	19267.9	298.709	9593.29	
58	482951	3946.27	18954.3	283.425	9234.22	
59	471039	3863.65	18874.6	264.113	9119.38	
60	466015	3994.23	18730.8	246.845	8747.05	
61	464419	4018.92	18430.4	254.968	8360.69	
62	464226	4139.52	18570.2	273.257	8438.21	
63	470403	4264.3	18465.3	301.757	8236.19	
64	469611	4338.99	18389.2	269.191	7966.57	
65	462337	4336.05	18953.2	281.399	8032.68	
66	462517	4532.75	18546.8	295.641	7695.19	
67	450278	4337.4	17644.6	250.903	7348.5	
68	445262	4417.25	17938	268.178	7277.39	
69	445837	4423.59	17724	272.248	7054.35	
70	444824	4564.1	17709.3	255.988	6970.58	
71	439399	4738.29	17948.3	278.34	6725.48	
72	438909	4722.65	17549.9	284.454	6640.45	
73	442349	4837.74	17333	255.987	6373.81	
74	456952	5304.93	17886.2	263.096	6788.29	
75	449769	5305.13	17723.4	274.275	6517.75	
76	445997	5422.47	17465.6	247.852	6361.99	
77	442246	5456.48	16942.3	288.511	6253.53	
78	450353	5692.61	16988.1	230.608	6245	
79	438826	5466.36	17087.8	251.924	6058.96	
80	440705	5752.02	17415.7	280.383	5948.96	
81	442611	5753.26	17064.6	264.101	5878.97	
82	438339	5851.75	16802.3	251.913	5917.78	
83	440664	6046.01	16898.9	225.54	5579.9	
84	430825	5741.95	16208.9	270.21	5498.66	
85	429954	6126.74	16282.3	239.741	5269.72	
86	426017	6143.78	15991.9	242.785	5425.1	
87	415549	5875.51	15725	253.949	4991.46	
88	416655	6048.56	15683.6	220.476	4835.51	
89	421508	6043.24	15519.9	227.561	4950.36	
90	409511	5932.93	15109	236.71	4660.45	
91	415954	6302.68	15243.7	219.463	4812.83	
92	424241	6491.27	15412.4	244.817	4818.48	
93	421206	6598.22	15512.2	244.816	4774.3	
94	417219	6733.02	14946.8	228.586	4674.95	
95	417223	6905.37	14870.7	234.668	4524.43	
96	416524	6908.13	14948.9	231.618	4537.6	
97	409838	6743.59	14296.1	233.646	4337.27	
98	408066	7105.89	14579.8	209.321	4360.99	
99	400260	6794.27	14022.4	194.142	4093.53	
100	398103	6986.27	13993.9	195.151	4165.46	
101	401412	7123.02	13836.8	219.446	4142.58	
102	386877	6886.62	13438.2	214.389	3847.3	
103	379974	6687.43	12811.4	194.146	3726.64	
104	379994	6682.67	13063.3	217.435	3663.74	
105	375659	6722.87	12781.2	209.342	3589.61	
106	371717	6761.63	12101.2	196.169	3574.92	
107	369521	6858.23	12206.4	188.073	3542.47	
108	363685	7031.46	11762.3	187.063	3408.02	
109	358929	6856.75	11629.8	191.101	3349.38	
110	355973	6510.98	11235	200.209	3271.49	
111	348291	6703.29	10971.3	171.896	3099.79	
112	353797	7104.9	10764.7	164.823	3124.02	
113	350781	7100.79	10718.1	163.81	3071.19	
114	351180	7145.57	10912	187.062	3145.73	
115	357931	7498.48	10859.1	179.978	3147.11	
116	355855	7423.71	10927.1	183.013	3151.82	
117	358596	7689.11	10763.5	185.04	3123.89	
118	358705	7744.2	10656.6	157.754	3100.74	
119	353633	7707.8	10619.9	182.007	3088.7	
120	351399	7452.5	10362.3	186.052	3001.13	
121	350321	7943.29	10227.1	153.718	2986.36	
122	351897	7983.84	10144.3	184.029	3060.75	
123	349876	7985.2	10150.7	159.773	2888.03	
124	351596	8165.38	9915.51	187.062	2939.56	
125	347714	7974.6	10059	178.972	2871.89	
126	345772	8104.83	9561.87	189.084	2891.59	
127	343920	8103.3	9558.59	147.662	2853.27	
128	345114	8202.93	9448.68	167.867	2870.37	
129	339682	8157.74	9278.14	139.593	2816.41	
130	339056	8162.96	8933.42	158.761	2721.87	
131	339455	8319.06	9050.88	148.67	2796.17	
132	339878	8162.71	9141.86	166.845	2655.82	
133	340515	8483.13	8948.48	155.734	2692.98	
134	342005	8566.2	8658.56	158.767	2852.22	
135	336528	8585.96	8565.52	159.775	2661.79	
136	334337	8691.27	8223.01	165.831	2649.81	
137	328914	8607.87	8132.59	136.566	2600.04	
138	330180	8748.53	8030.5	154.728	2553.33	
139	332766	8829.46	7966.64	150.684	2625.48	
140	321865	8235.86	7596.02	131.527	2485.32	
141	330747	8696.8	7889.89	147.661	2520.1	
142	324406	8669.96	7498.3	142.619	2554.47	
143	324313	8573.8	7507.37	139.589	2575.35	
144	330806	8980.47	7487.11	143.627	2592.08	
145	326696	9069.64	7502.32	141.609	2550.57	
146	328341	9189.08	7341.31	120.438	2603.7	
147	327514	9176.48	7167.67	149.672	2534.99	
148	323471	8845.21	7014.46	144.636	2498.1	
149	323329	9135.87	7022.06	148.672	2642.52	
150	320635	8928.47	6766.64	137.572	2522.93	
151	319622	9053.61	6554.38	107.351	2574.71	
152	315736	8844.63	6641.62	120.439	2471.85	
153	310834	8607.67	6393.74	126.485	2502.28	
154	318222	9204.06	6466.08	143.627	2529.26	
155	316524	9185.42	6185.36	134.546	2466.71	
156	312523	8966.81	6079.55	141.61	2542.61	
157	309310	8636.36	6065.41	138.583	2489.78	
158	304805	8694.73	5774.04	115.405	2389.17	
159	303083	8693.54	5749.88	132.534	2499.78	
160	298962	8652.81	5406.96	126.486	2250.19	
161	300775	8381.66	5401.03	127.492	2383.54	
162	298625	8490.29	5288.7	127.495	2404.52	
163	298825	8434.49	5099.95	130.518	2483.27	
164	296060	8397.07	5250.13	130.518	2418.44	
165	292031	8213.37	4935.23	115.405	2403.06	
166	291896	8331.85	4959.58	118.427	2369.55	
167	296432	8528.41	4919.01	114.398	2522.77	
168	295736	8381.95	4914.51	117.419	2423.01	
169	295574	8515.61	4750.76	115.405	2398.89	
170	293868	8427.47	4755.17	91.2537	2447.12	
171	291699	8368.93	4609.71	126.487	2397.11	
172	289954	8266.75	4441.62	108.357	2472.68	
173	289270	8289.61	4512.92	116.413	2449.6	
174	290200	8197.53	4448.86	98.2943	2479.99	
175	296885	8655.39	4352.06	114.398	2558.82	
176	293079	8469.18	4239.01	98.2941	2619.05	
177	299156	8550.1	4370.93	131.517	2648.24	
178	299199	8859.79	4173.93	114.398	2725.74	
179	295903	8607.74	4099.9	115.405	2757.22	
180	295702	8856.8	4107.68	109.36	2720.45	
181	298798	8836.24	4085.66	111.376	2743.47	
182	288761	8345.73	4001.37	99.3003	2634.97	
183	284227	7978.37	3780.95	111.378	2576.35	
184	283711	8200.75	3651.72	77.1812	2632.97	
185	281776	8082.55	3598.18	88.2371	2681.17	
186	281053	7888.11	3504.57	89.2425	2519.6	
187	286195	8168.72	3632.75	107.351	2622.37	
188	284118	8070.98	3427.01	101.312	2782.11	
189	279884	7924.4	3434.22	102.316	2749.64	
190	277099	7933.48	3224.47	87.2317	2790.94	
191	276188	7740.59	3301.57	108.357	2753.02	
192	272502	7534.98	3136.24	88.2372	2676.66	
193	277113	7880.6	3264.69	108.358	2647.24	
194	275571	7776.92	3188.17	110.371	2661	
195	272084	7552.27	2974.56	119.431	2733.16	
196	273199	7626.92	2949.4	96.2812	2696.51	
197	269243	7500.67	2879.1	104.331	2733.1	
198	269480	7424.42	2826.35	123.46	2673.95	
199	269604	7577.65	2804.16	118.427	2797.04	
200	267965	7591.89	2764.86	117.417	2793.04	
201	263166	7220.65	2670.42	76.1768	2638.49	
202	259725	7058.84	2622.05	106.344	2736.36	
203	257662	6886.91	2486.48	86.2251	2720.47	
204	255793	6939.97	2366.02	91.2514	2659	
205	255704	6634.7	2391.48	101.313	2574.27	
206	250891	6494.29	2309.37	88.2372	2720.29	
207	254028	6616.59	2352.03	85.2209	2576.39	
208	253101	6716.25	2307.51	110.371	2691.69	
209	256287	6736.92	2206.07	94.2707	2681.01	
210	252465	6576.67	2228.97	106.344	2610.67	
211	253128	6580.76	2192.35	97.2883	2700.4	
212	252131	6688.34	2087.51	95.2762	2668.06	
213	251379	6624.41	2077.29	106.344	2792.27	
214	252199	6401.38	2080.7	105.338	2783.19	
215	251140	6571.56	2008.33	89.2426	2788.92	
216	253058	6391.06	2047.94	96.2828	2830.1	
217	250731	6405.78	1930.38	101.313	2617.71	
218	249219	6144.47	1876.47	88.2414	2812.28	
219	247091	6118.23	1824.15	90.2474	2802.97	
220	245206	6173.83	1835.26	83.2089	2743.56	
221	243707	5916.05	1802.63	87.2318	2642.37	
222	242661	6018.67	1808.21	87.2314	2743.56	
223	245273	5881.96	1704.69	100.309	2677.61	
224	243968	5855.83	1663.68	101.312	2738.83	
225	243966	5865.54	1658.15	85.2213	2699.71	
226	243985	5770.25	1636.03	79.1911	2720.12	
227	242547	5686.19	1550.07	79.1911	2705.77	
228	244949	5670.11	1601.91	95.2765	2749.91	
229	244074	5703.86	1573.26	96.2824	2760.31	
230	240714	5647.21	1554.56	94.2698	2664.53	
231	239901	5364.45	1468.92	92.2592	2800.8	
232	239321	5436.77	1444.88	104.331	2771.33	
233	236975	5396.36	1384.06	86.2251	2624.76	
234	239148	5272.1	1415.42	87.2318	2593.05	
235	237163	5318.78	1363.21	98.2941	2628.18	
236	234988	5038.8	1387.27	90.2481	2680.19	
237	232954	5002.19	1254.93	105.338	2658.83	
238	234410	5026.6	1270.05	83.2109	2550.62	
239	232778	4766.44	1244.14	102.319	2495.8	
240	228069	4736.79	1175.23	90.248	2490.14	
241	231062	4876.84	1137.6	94.2707	2722.11	
242	208508	3863.06	951.138	88.2372	2052.76	
243	203211	3590.12	899.232	86.2264	2145.82	
244	206452	3810.71	934.189	82.2059	2142.4	
245	210504	3908.14	907.742	92.2593	2239.58	
246	213337	4091.91	874.961	85.2213	2279.62	
247	214049	3955.2	958.555	74.1676	2237	
248	217695	3990.69	923.547	100.306	2284.06	
249	214846	3942.02	904.515	86.2265	2264.68	
250	213451	3914.26	877.062	75.1742	2300.31	
251	216358	3940.61	919.316	99.3003	2282.21	
252	217314	3848.61	879.172	90.2481	2290.41	
253	218970	3928.12	854.922	91.2524	2391.64	
254	215915	3613.79	786.583	80.196	2292.56	
255	216897	3652.48	908.743	83.2109	2290.96	
256	217762	3774.15	859.137	80.1955	2291.26	
257	217591	3900.53	806.58	75.1722	2248.61	
258	220425	3667.19	786.583	86.2265	2360.26	
259	217991	3657.48	772.949	103.325	2370.66	
260	216338	3478.44	722.708	89.2426	2258.08	
261	215286	3525.5	723.753	102.319	2271.55	
262	217075	3475.49	736.3	109.364	2248.61	
263	217315	3499.25	691.385	85.2213	2191.35	
264	215836	3298.48	665.328	99.2998	2163.92	
265	215521	3363.85	700.775	84.2161	2186.7	
266	214857	3305.02	623.723	84.2161	2152.67	
267	215887	3362.63	672.644	79.1911	2222.23	
268	213888	3217.16	643.472	82.2051	2186.78	
269	212855	3154	622.684	77.1819	2195.92	
270	211549	3011.57	618.53	96.2824	2117.21	
271	210200	2985.16	561.513	96.2823	2017.37	
272	209731	2940.63	578.139	78.1857	2031.08	
273	210284	2920.3	553.236	73.1631	2032.08	
274	211795	3087.06	545.997	89.2426	2084.11	
275	210262	2839.39	588.442	84.2158	1911.39	
276	210424	2877.51	515.01	94.2706	2081.97	
277	210098	2756.39	494.385	103.325	2070.62	
278	205459	2670.24	476.873	88.2371	1857.54	
279	261044	4022.41	731.071	137.579	2868.37	
280	244097	3422.9	639.313	132.533	2509.78	
281	240534	3260.58	585.332	106.344	2494.8	
282	233229	3128.05	572.901	97.2883	2262.24	
283	227633	2952.75	571.865	104.331	2144.68	
284	224674	2965.89	565.653	96.2822	2120.49	
285	221145	2723.97	550.134	103.324	2065.95	
286	222030	2739.65	499.539	102.319	2152.53	
287	223082	2723.29	480.992	98.2943	2048.94	
288	220950	2717.22	468.639	101.312	2105.84	
289	219189	2649.07	408.039	83.2097	2036.61	
290	218077	2598.6	453.211	100.306	2069.62	
291	219936	2510.94	418.295	99.304	1996.28	
292	218871	2582.2	439.852	91.2537	1990.12	
293	217959	2457.41	431.663	100.306	1905.65	
294	216952	2343.95	427.53	95.2765	1883.32	
295	211795	2378.45	396.766	102.325	1836.32	
296	214177	2328.96	372.196	97.2899	1877.65	
297	210677	2262.23	348.684	108.358	1751.36	
298	208931	2167.22	410.09	110.371	1730.45	
299	213940	2204.93	369.127	91.2537	1913.76	
300	213327	2214.07	371.173	106.344	1804.91	
301	213674	2218.66	367.082	102.318	1798.28	
302	212768	2172.93	356.858	102.32	1759.26	
303	210605	2072.75	355.836	109.364	1779.32	
304	210695	2033.03	291.597	113.391	1748.24	
305	209089	2005.93	326.226	97.2883	1579.77	
306	207960	1994.64	303.799	93.2681	1645.98	
307	208315	1893.3	282.438	89.2425	1663.68	
308	208436	1909.94	303.799	95.2759	1702.58	
309	210246	1893.3	264.134	94.2707	1664.89	
310	210547	1799.28	294.633	89.2426	1631.72	
311	205092	1752.38	282.42	92.2593	1578.74	
312	204765	1805.87	274.283	96.2847	1545.87	
313	199627	1776.97	260.053	99.3003	1446.24	
314	198228	1630.4	298.706	95.2765	1478.87	
315	196830	1689.16	257.005	85.2213	1481.24	
316	199924	1689.15	253.958	106.35	1415.42	
317	192500	1496.29	264.117	94.2707	1331.68	
318	194089	1557.76	286.49	88.2365	1392.54	
319	190040	1521.51	263.101	88.2372	1339.36	
320	186715	1443.69	242.79	111.378	1319.92	
321	190158	1509.35	206.294	107.353	1298.33	
322	186261	1420.87	220.477	95.2765	1290.52	
323	182227	1425.14	201.231	85.2213	1259.18	
324	187034	1364.25	216.423	76.1768	1296.01	
325	185604	1421.93	243.805	82.2059	1322.09	
326	187230	1380.49	228.587	76.1768	1262.41	
327	183258	1290.52	226.559	86.2265	1216.03	
328	178433	1308.81	214.397	91.2515	1211.72	
329	181458	1271.03	228.587	115.404	1188.05	
330	175370	1238.66	196.17	80.196	1149.54	
331	171832	1192.35	178.974	88.242	1139.81	
332	176035	1155.75	173.92	92.2618	1146.17	
333	170692	1148.32	192.122	72.1608	1079.81	
334	170404	1184.75	177.963	86.2265	1054.2	
335	170089	1094.78	141.61	84.2161	1109.75	
336	167403	1130.09	157.757	98.2943	1040.34	
337	174812	1146.17	178.974	84.2161	1100.12	
338	172688	1122.6	162.806	96.2824	1049.93	
339	167175	1039.28	185.041	74.1676	1013.92	
340	169100	1039.28	175.941	97.288	1011.72	
341	163841	1056.33	143.628	86.2265	1017.98	
342	164566	952.138	157.757	63.1213	972.288	
343	163493	903.458	140.602	98.2943	980.779	
344	162952	914.028	136.568	80.196	1030.82	
345	158891	951.078	142.619	97.2883	893.951	
346	161517	870.733	128.503	71.1543	910.914	
347	158046	924.605	130.518	80.196	922.489	
348	157555	852.815	139.593	62.1176	843.337	
349	162878	902.401	130.518	64.1253	843.337	
350	161927	829.616	128.503	74.1676	874.952	
351	162930	818.089	126.487	88.2372	895.007	
352	157024	838.074	116.413	78.1863	881.282	
353	156505	817.038	120.442	86.2247	905.592	
354	154015	792.879	113.391	73.1631	830.708	
355	152246	705.995	116.413	75.1722	806.53	
356	152050	724.797	120.442	73.1631	768.757	
357	163056	814.92	124.472	85.2213	826.5	
358	158751	758.28	126.487	80.196	823.346	
359	159587	736.299	110.371	73.1631	776.095	
360	155244	781.338	115.413	92.2593	740.484	
361	151866	683.042	106.351	87.2318	785.534	
362	152757	707.038	115.405	77.1838	728.979	
363	150626	678.872	102.319	84.2161	734.208	
364	149265	655.957	117.42	64.1253	716.438	
365	149722	665.279	107.351	80.1974	718.573	
366	146630	623.723	92.2593	72.1587	646.593	
367	146306	634.114	84.2161	58.1029	664.328	
368	147565	588.442	89.2426	88.2372	673.704	
369	144301	584.296	83.2109	84.2161	624.801	
370	145739	600.885	103.325	75.1722	609.186	
371	143634	584.296	92.2593	69.1457	639.313	
372	144052	579.115	92.2593	71.1543	577.044	
373	143719	536.695	78.1863	57.0994	566.688	
374	142908	550.134	87.2318	77.1815	557.374	
375	140690	572.901	80.196	61.1138	570.83	
376	143047	502.625	69.1457	70.15	589.478	
377	139139	521.18	84.2161	82.2089	553.236	
378	138263	482.022	88.2372	77.1815	554.271	
379	140971	483.022	84.2161	78.189	538.762	
380	136298	476.873	52.0827	66.1333	496.446	
381	138632	487.172	68.1415	78.1845	511.915	
382	139747	483.051	70.15	70.15	568.759	
383	137500	449.099	90.2481	70.15	484.081	
384	139624	482.021	71.1543	71.1543	561.513	
385	138509	469.668	75.1722	63.1214	485.111	
386	135314	426.489	67.1374	67.1374	456.324	
387	138444	422.398	80.196	79.1908	487.202	
388	134461	409.064	61.1138	75.1722	441.906	
389	133486	360.947	63.1214	78.1863	471.755	
390	134928	383.452	61.1138	74.1676	455.267	
391	135994	394.717	64.1253	76.1764	426.53	
392	134854	370.15	70.15	58.1029	388.572	
393	133958	404.964	62.1176	63.1214	442.943	
394	131150	372.196	66.1333	63.1214	475.844	
395	132946	346.641	54.0892	66.1333	441.906	
396	131025	369.127	51.0795	66.1333	415.217	
397	131595	404.964	46.0647	62.1176	422.398	
398	131943	368.082	49.0734	75.1722	358.902	
399	129842	389.596	61.1138	60.1101	423.425	
400	127846	345.62	65.1293	58.1029	384.476	
401	128258	324.186	69.1457	53.0859	357.88	
402	127617	291.579	37.0418	61.1143	355.836	
403	127809	310.932	57.0994	65.1293	351.749	
404	130832	308.894	57.0994	71.152	391.644	
405	129276	330.287	74.1676	75.1722	366.059	
406	128824	300.743	58.1029	89.2426	367.082	
407	129468	276.317	45.0619	51.0795	366.059	
408	128576	303.799	45.0619	65.1293	343.577	
409	125957	251.927	65.1293	55.0923	315.009	
410	126104	289.543	46.0647	59.1065	325.206	
411	124258	265.134	47.0675	57.0994	320.107	
412	124067	284.455	57.0994	67.1374	331.347	
413	122474	280.386	40.0489	66.1333	323.166	
414	122434	271.233	62.1176	55.0925	328.267	
415	119855	264.117	49.0763	62.1176	300.743	
416	119001	246.85	46.0647	57.0994	285.473	
417	121245	278.351	38.0441	52.0827	264.117	
418	119064	230.608	48.0704	53.0859	285.473	
419	117545	235.687	41.0514	52.0827	269.199	
420	117306	237.716	47.0675	67.1374	285.473	
421	116909	234.673	36.0396	59.1065	257.005	
422	113550	224.532	32.0313	59.1064	264.117	
423	116164	197.182	45.0619	56.0959	252.943	
424	114817	224.532	50.0765	58.1029	232.644	
425	113985	196.17	28.024	70.15	282.42	
426	114921	207.306	33.0333	53.0883	225.545	
427	112064	180.996	32.0313	54.0892	246.85	
428	112763	206.293	40.0489	59.1065	225.545	
429	113339	178.974	35.0374	55.0925	261.069	
430	111416	190.099	45.0619	56.0959	204.268	
431	112411	193.134	30.0275	57.0994	247.865	
432	111930	173.92	29.0257	51.0795	252.943	
433	112189	186.052	26.0207	58.1011	242.79	
434	112350	173.92	36.0396	50.0765	245.835	
435	110829	188.075	27.0223	58.1029	216.423	
436	110196	176.952	31.0294	54.0883	222.504	
437	107957	168.867	34.0353	42.0539	210.344	
438	107631	176.952	24.0176	53.0859	186.052	
439	106490	151.7	21.0135	54.0892	177.974	
440	108867	162.806	25.0191	58.1029	191.11	
441	107113	183.018	30.0275	53.0859	222.504	
442	105837	164.826	34.0353	45.0619	207.306	
